File: Tensile test/TENSILE TEST.is_qtest_Exports/TENSILE TEST_2.csv
Time,Displacement,Force
(s),(mm),(kN)
"0.0000","-0.0001","0.0002"
"0.9000","3.0063","0.0020"
"1.8000","6.0065","0.0034"
"2.7000","9.0064","0.0048"
"3.6000","12.0064","0.0056"
"4.5000","15.0066","0.0064"
"5.4000","18.0066","0.0073"
"6.3000","21.0065","0.0075"
"7.2000","24.0067","0.0087"
"8.1000","27.0067","0.0085"
"9.0000","30.0068","0.0097"
"9.9000","33.0068","0.0096"
"10.8000","36.0067","0.0095"
"11.7000","39.0065","0.0106"
"12.6000","42.0065","0.0105"
"13.5000","45.0064","0.0111"
"14.4000","48.0066","0.0118"
"15.3000","51.0065","0.0121"
"16.2000","54.0065","0.0123"
"17.1000","57.0066","0.0132"
"18.0000","60.0065","0.0132"
"18.9000","63.0066","0.0137"
"19.8000","66.0067","0.0145"
"20.7000","69.0066","0.0141"
"21.6000","72.0067","0.0136"
"22.5000","75.0066","0.0149"
"23.4000","78.0067","0.0153"
"24.3000","81.0067","0.0152"
"25.2000","84.0066","0.0156"
"26.1000","87.0066","0.0151"
"27.0000","90.0062","0.0169"
"27.9000","93.0066","0.0169"
"28.8000","96.0064","0.0173"
"29.7000","99.0067","0.0171"
"30.6000","102.0067","0.0177"
"31.5000","105.0067","0.0175"
"32.4000","108.0067","0.0173"
"33.3000","111.0066","0.0179"
"34.2000","114.0068","0.0185"
"35.1000","117.0066","0.0186"
"36.0000","120.0068","0.0190"
"36.9000","123.0067","0.0186"
"37.8000","126.0066","0.0195"
"38.7000","129.0066","0.0206"
"39.6000","132.0065","0.0207"
"40.5000","135.0065","0.0209"
"41.4000","138.0065","0.0210"
"42.3000","141.0066","0.0220"
"43.2000","144.0065","0.0219"
"44.1000","147.0066","0.0226"
"45.0000","150.0067","0.0230"
"45.9000","153.0067","0.0230"
"46.8000","156.0066","0.0236"
"47.7000","159.0066","0.0246"
"48.6000","162.0064","0.0242"
"49.5000","165.0064","0.0245"
"50.4000","168.0066","0.0251"
"51.3000","171.0067","0.0235"
"52.2000","174.0066","0.0248"
"53.1000","177.0066","0.0255"
"54.0000","180.0063","0.0261"
"54.9000","183.0064","0.0270"
"55.8000","186.0065","0.0253"
"56.7000","189.0065","0.0264"
"57.6000","192.0065","0.0269"
"58.5000","195.0065","0.0284"
"59.4000","198.0066","0.0288"
"60.3000","201.0067","0.0284"
"61.2000","204.0066","0.0288"
"62.1000","207.0067","0.0296"
"63.0000","210.0066","0.0298"
"63.9000","213.0067","0.0268"
"64.8000","216.0065","0.0285"
"65.7000","219.0065","0.0297"
"66.6000","222.0066","0.0305"
"67.5000","225.0065","0.0316"
"68.4000","228.0066","0.0313"
"69.3000","231.0066","0.0321"
"70.2000","234.0066","0.0304"
"71.1000","237.0066","0.0318"
"72.0000","240.0064","0.0339"
"72.9000","243.0067","0.0340"
"73.8000","246.0065","0.0343"
"74.7000","249.0066","0.0348"
"75.6000","252.0066","0.0357"
"76.5000","255.0065","0.0361"
"77.4000","258.0064","0.0370"
"78.3000","261.0063","0.0369"
"79.2000","264.0067","0.0377"
"80.1000","267.0065","0.0385"
"81.0000","270.0068","0.0388"
"81.9000","273.0068","0.0392"
"82.8000","276.0066","0.0399"
"83.7000","279.0067","0.0405"
"84.6000","282.0067","0.0420"
"85.5000","285.0068","0.0415"
"86.4000","288.0066","0.0392"
"87.3000","291.0067","0.0416"
"88.2000","294.0065","0.0423"
"89.1000","297.0064","0.0427"
"90.0000","300.0066","0.0443"
"90.9000","303.0066","0.0441"
"91.8000","306.0066","0.0454"
"92.7000","309.0064","0.0454"
"93.6000","312.0066","0.0472"
"94.5000","315.0066","0.0467"
"95.4000","318.0067","0.0468"
"96.3000","321.0068","0.0485"
"97.2000","324.0067","0.0497"
"98.1000","327.0066","0.0504"
"99.0000","330.0065","0.0508"
"99.9000","333.0064","0.0520"
"100.8000","336.0066","0.0532"
"101.7000","339.0064","0.0535"
"102.6000","342.0067","0.0550"
"103.5000","345.0065","0.0559"
"104.4000","348.0062","0.0571"
"105.3000","351.0063","0.0574"
"106.2000","354.0065","0.0580"
"107.1000","357.0066","0.0599"
"108.0000","360.0067","0.0614"
"108.9000","363.0066","0.0619"
"109.8000","366.0066","0.0626"
"110.7000","369.0066","0.0640"
"111.6000","372.0066","0.0652"
"112.5000","375.0065","0.0656"
"113.4000","378.0066","0.0657"
"114.3000","381.0064","0.0677"
"115.2000","384.0065","0.0676"
"116.1000","387.0064","0.0695"
"117.0000","390.0064","0.0712"
"117.9000","393.0065","0.0727"
"118.8000","396.0063","0.0737"
"119.7000","399.0065","0.0756"
"120.6000","402.0065","0.0773"
"121.5000","405.0066","0.0774"
"122.4000","408.0067","0.0795"
"123.3000","411.0067","0.0820"
"124.2000","414.0068","0.0826"
"125.1000","417.0066","0.0837"
"126.0000","420.0064","0.0858"
"126.9000","423.0065","0.0870"
"127.8000","426.0064","0.0549"
"128.7000","429.0065","0.0594"
"129.6000","432.0063","0.0635"
"130.5000","435.0067","0.0667"
"131.4000","438.0064","0.0702"
"132.3000","441.0067","0.0739"
"133.2000","444.0066","0.0763"
"134.1000","447.0066","0.0796"
"135.0000","450.0068","0.0823"
"135.9000","453.0066","0.0848"
"136.8000","456.0070","0.0865"
"137.7000","459.0066","0.0879"
"138.6000","462.0068","0.0913"
"139.5000","465.0065","0.0924"
"140.4000","468.0065","0.0959"
"141.3000","471.0066","0.0976"
"142.2000","474.0064","0.0996"
"143.1000","477.0066","0.1028"
"144.0000","480.0064","0.1047"
"144.9000","483.0067","0.1076"
"145.8000","486.0066","0.1104"
"146.7000","489.0066","0.1130"
"147.6000","492.0067","0.1160"
"148.5000","495.0066","0.1187"
"149.4000","498.0065","0.1209"
"150.3000","501.0065","0.1233"
"151.2000","504.0065","0.1265"
"152.1000","507.0067","0.1286"
"153.0000","510.0066","0.1317"
"153.9000","513.0067","0.1344"
"154.8000","516.0064","0.1360"
"155.7000","519.0062","0.1396"
"156.6000","522.0063","0.1430"
"157.5000","525.0064","0.1467"
"158.4000","528.0065","0.1497"
"159.3000","531.0065","0.1536"
"160.2000","534.0064","0.1566"
"161.1000","537.0065","0.1606"
"162.0000","540.0064","0.1642"
"162.9000","543.0065","0.1687"
"163.8000","546.0065","0.1725"
"164.7000","549.0067","0.1767"
"165.6000","552.0063","0.1809"
"166.5000","555.0067","0.1841"
"167.4000","558.0065","0.1888"
"168.3000","561.0067","0.1921"
"169.2000","564.0065","0.1953"
"170.1000","567.0063","0.1994"
"171.0000","570.0063","0.2043"
"171.9000","573.0063","0.2077"
"172.8000","576.0066","0.2115"
"173.7000","579.0067","0.2151"
"174.6000","582.0067","0.2195"
"175.5000","585.0067","0.2239"
"176.4000","588.0062","0.2280"
"177.3000","591.0065","0.1993"
"178.2000","594.0063","0.2185"
"179.1000","597.0065","0.2282"
"180.0000","600.0066","0.2349"
"180.9000","603.0065","0.2400"
"181.8000","606.0067","0.1185"
"182.7000","609.0064","0.1433"
"183.6000","612.0066","0.1579"
"184.5000","615.0065","0.1705"
"185.4000","618.0067","0.1827"
"186.3000","621.0067","0.1930"
"187.2000","624.0065","0.2026"
"188.1000","627.0068","0.2110"
"189.0000","630.0065","0.2202"
"189.9000","633.0068","0.2285"
"190.8000","636.0065","0.2367"
"191.7000","639.0063","0.2231"
"192.6000","642.0065","0.2374"
"193.5000","645.0064","0.2472"
"194.4000","648.0065","0.2543"
"195.3000","651.0065","0.2578"
"196.2000","654.0067","0.2652"
"197.1000","657.0066","0.2715"
"198.0000","660.0067","0.2781"
"198.9000","663.0067","0.2848"
"199.8000","666.0063","0.2851"
"200.7000","669.0065","0.2933"
"201.6000","672.0065","0.3002"
"202.5000","675.0064","0.2225"
"203.4000","678.0065","0.2416"
"204.3000","681.0065","0.2579"
"205.2000","684.0065","0.2725"
"206.1000","687.0065","0.2845"
"207.0000","690.0063","0.2936"
"207.9000","693.0064","0.3038"
"208.8000","696.0064","0.3119"
"209.7000","699.0065","0.3196"
"210.6000","702.0066","0.3270"
"211.5000","705.0065","0.3325"
"212.4000","708.0067","0.3403"
"213.3000","711.0065","0.2276"
"214.2000","714.0065","0.2484"
"215.1000","717.0064","0.2674"
"216.0000","720.0066","0.2853"
"216.9000","723.0063","0.3007"
"217.8000","726.0065","0.3146"
"218.7000","729.0064","0.3256"
"219.6000","732.0063","0.3363"
"220.5000","735.0064","0.3461"
"221.4000","738.0063","0.3541"
"222.3000","741.0065","0.3588"
"223.2000","744.0064","0.3679"
"224.1000","747.0067","0.3746"
"225.0000","750.0067","0.3817"
"225.9000","753.0066","0.3891"
"226.8000","756.0066","0.3957"
"227.7000","759.0065","0.4014"
"228.6000","762.0064","0.4081"
"229.5000","765.0065","0.4151"
"230.4000","768.0065","0.4227"
"231.3000","771.0063","0.4294"
"232.2000","774.0062","0.4328"
"233.1000","777.0067","0.4403"
"234.0000","780.0064","0.4481"
"234.9000","783.0066","0.4551"
"235.8000","786.0068","0.4633"
"236.7000","789.0063","0.4704"
"237.6000","792.0067","0.4775"
"238.5000","795.0067","0.4853"
"239.4000","798.0069","0.4936"
"240.3000","801.0065","0.5004"
"241.1480","803.8334","0.1325"
"242.0480","806.8331","0.1477"
"242.9480","809.8332","0.1597"
"243.8480","812.8333","0.1300"
"244.7480","815.8331","0.1447"
"245.6480","818.8331","0.1562"
"246.5480","821.8328","0.1666"
"247.4480","824.8332","0.1769"
"248.3480","827.8331","0.1851"
"249.2480","830.8333","0.1932"
"250.1480","833.8332","0.1336"
"251.0480","836.8332","0.1455"
"251.9480","839.8333","0.1548"
"252.8480","842.8332","0.1526"
"253.7480","845.8334","0.1619"
"254.6480","848.8330","0.1715"
"255.5480","851.8334","0.1787"
"256.4480","854.8332","0.1865"
"257.3480","857.8331","0.1934"
"258.2480","860.8333","0.2000"
"259.1480","863.8331","0.2055"
"259.2100","864.0398","0.2070"