File: Tensile test/TENSILE TEST.is_qtest_Exports/TENSILE TEST_1.csv
Time,Displacement,Force
(s),(mm),(kN)
"0.0000","0.0000","0.0002"
"0.2000","0.0572","0.0002"
"0.4000","0.1319","0.0003"
"0.6000","0.2005","0.0003"
"0.8000","0.2674","0.0002"
"1.0000","0.3342","0.0008"
"1.2000","0.4008","0.0009"
"1.4000","0.4674","0.0008"
"1.6000","0.5340","0.0010"
"1.8000","0.6007","0.0007"
"2.0000","0.6674","0.0013"
"2.2000","0.7341","-0.0002"
"2.4000","0.8008","0.0010"
"2.6000","0.8673","0.0007"
"2.8000","0.9341","0.0012"
"3.0000","1.0007","0.0008"
"3.2000","1.0674","0.0011"
"3.4000","1.1340","0.0017"
"3.6000","1.2007","0.0007"
"3.8000","1.2674","0.0009"
"4.0000","1.3341","0.0012"
"4.2000","1.4007","0.0006"
"4.4000","1.4674","0.0013"
"4.6000","1.5341","0.0014"
"4.8000","1.6007","0.0018"
"5.0000","1.6674","0.0017"
"5.2000","1.7340","0.0025"
"5.4000","1.8007","0.0018"
"5.6000","1.8673","0.0014"
"5.8000","1.9341","0.0018"
"6.0000","2.0007","0.0018"
"6.2000","2.0675","0.0021"
"6.4000","2.1341","0.0015"
"6.6000","2.2007","0.0021"
"6.8000","2.2674","0.0017"
"7.0000","2.3340","0.0015"
"7.2000","2.4007","0.0023"
"7.4000","2.4673","0.0020"
"7.6000","2.5341","0.0019"
"7.8000","2.6008","0.0020"
"8.0000","2.6674","0.0024"
"8.2000","2.7341","0.0020"
"8.4000","2.8007","0.0021"
"8.6000","2.8674","0.0023"
"8.8000","2.9340","0.0025"
"9.0000","3.0007","0.0022"
"9.2000","3.0674","0.0019"
"9.4000","3.1340","0.0025"
"9.6000","3.2008","0.0024"
"9.8000","3.2674","0.0019"
"10.0000","3.3340","0.0026"
"10.2000","3.4008","0.0030"
"10.4000","3.4674","0.0029"
"10.6000","3.5340","0.0023"
"10.8000","3.6006","0.0030"
"11.0000","3.6673","0.0025"
"11.2000","3.7339","0.0028"
"11.4000","3.8008","0.0027"
"11.6000","3.8674","0.0024"
"11.8000","3.9341","0.0031"
"12.0000","4.0008","0.0027"
"12.2000","4.0673","0.0030"
"12.4000","4.1340","0.0023"
"12.6000","4.2007","0.0023"
"12.8000","4.2674","0.0022"
"13.0000","4.3340","0.0027"
"13.2000","4.4007","0.0026"
"13.4000","4.4674","0.0029"
"13.6000","4.5340","0.0031"
"13.8000","4.6007","0.0028"
"14.0000","4.6673","0.0029"
"14.2000","4.7341","0.0019"
"14.4000","4.8007","0.0025"
"14.6000","4.8673","0.0032"
"14.8000","4.9340","0.0033"
"15.0000","5.0007","0.0025"
"15.2000","5.0674","0.0033"
"15.4000","5.1341","0.0030"
"15.6000","5.2007","0.0031"
"15.8000","5.2674","0.0036"
"16.0000","5.3339","0.0029"
"16.2000","5.4007","0.0025"
"16.4000","5.4674","0.0035"
"16.6000","5.5342","0.0032"
"16.8000","5.6006","0.0030"
"17.0000","5.6674","0.0034"
"17.2000","5.7340","0.0034"
"17.4000","5.8007","0.0033"
"17.6000","5.8674","0.0033"
"17.8000","5.9339","0.0034"
"18.0000","6.0007","0.0028"
"18.2000","6.0674","0.0040"
"18.4000","6.1340","0.0031"
"18.6000","6.2007","0.0030"
"18.8000","6.2674","0.0035"
"19.0000","6.3342","0.0030"
"19.2000","6.4006","0.0033"
"19.4000","6.4674","0.0034"
"19.6000","6.5339","0.0035"
"19.8000","6.6006","0.0038"
"20.0000","6.6674","0.0039"
"20.2000","6.7340","0.0041"
"20.4000","6.8008","0.0035"
"20.6000","6.8674","0.0029"
"20.8000","6.9341","0.0038"
"21.0000","7.0008","0.0032"
"21.2000","7.0674","0.0042"
"21.4000","7.1340","0.0038"
"21.6000","7.2006","0.0035"
"21.8000","7.2674","0.0037"
"22.0000","7.3340","0.0042"
"22.2000","7.4009","0.0040"
"22.4000","7.4674","0.0039"
"22.6000","7.5340","0.0042"
"22.8000","7.6007","0.0046"
"23.0000","7.6673","0.0036"
"23.2000","7.7340","0.0040"
"23.4000","7.8007","0.0038"
"23.6000","7.8675","0.0036"
"23.8000","7.9341","0.0040"
"24.0000","8.0007","0.0035"
"24.2000","8.0674","0.0042"
"24.4000","8.1340","0.0041"
"24.6000","8.2008","0.0037"
"24.8000","8.2673","0.0040"
"25.0000","8.3341","0.0039"
"25.2000","8.4007","0.0033"
"25.4000","8.4673","0.0042"
"25.6000","8.5341","0.0041"
"25.8000","8.6008","0.0039"
"26.0000","8.6674","0.0039"
"26.2000","8.7340","0.0040"
"26.4000","8.8007","0.0043"
"26.6000","8.8673","0.0042"
"26.8000","8.9340","0.0048"
"27.0000","9.0007","0.0042"
"27.2000","9.0673","0.0041"
"27.4000","9.1341","0.0037"
"27.6000","9.2007","0.0041"
"27.8000","9.2674","0.0042"
"28.0000","9.3340","0.0049"
"28.2000","9.4006","0.0044"
"28.4000","9.4674","0.0041"
"28.6000","9.5340","0.0047"
"28.8000","9.6007","0.0042"
"29.0000","9.6674","0.0050"
"29.2000","9.7341","0.0039"
"29.4000","9.8008","0.0043"
"29.6000","9.8674","0.0045"
"29.8000","9.9341","0.0045"
"30.0000","10.0006","0.0042"
"30.2000","10.0674","0.0046"
"30.4000","10.1340","0.0046"
"30.6000","10.2007","0.0053"
"30.8000","10.2674","0.0040"
"31.0000","10.3340","0.0042"
"31.2000","10.4008","0.0052"
"31.4000","10.4673","0.0046"
"31.6000","10.5341","0.0043"
"31.8000","10.6007","0.0045"
"32.0000","10.6674","0.0050"
"32.2000","10.7341","0.0044"
"32.4000","10.8007","0.0049"
"32.6000","10.8675","0.0050"
"32.8000","10.9340","0.0045"
"33.0000","11.0008","0.0055"
"33.2000","11.0674","0.0056"
"33.4000","11.1341","0.0046"
"33.6000","11.2008","0.0047"
"33.8000","11.2673","0.0045"
"34.0000","11.3341","0.0057"
"34.2000","11.4007","0.0046"
"34.4000","11.4674","0.0047"
"34.6000","11.5340","0.0044"
"34.8000","11.6007","0.0051"
"35.0000","11.6674","0.0046"
"35.2000","11.7339","0.0061"
"35.4000","11.8008","0.0043"
"35.6000","11.8673","0.0047"
"35.8000","11.9340","0.0048"
"36.0000","12.0008","0.0053"
"36.2000","12.0674","0.0055"
"36.4000","12.1341","0.0050"
"36.6000","12.2006","0.0052"
"36.8000","12.2674","0.0053"
"37.0000","12.3340","0.0053"
"37.2000","12.4006","0.0050"
"37.4000","12.4674","0.0045"
"37.6000","12.5340","0.0053"
"37.8000","12.6008","0.0050"
"38.0000","12.6674","0.0049"
"38.2000","12.7341","0.0044"
"38.4000","12.8007","0.0056"
"38.6000","12.8674","0.0058"
"38.8000","12.9341","0.0051"
"39.0000","13.0007","0.0045"
"39.2000","13.0675","0.0053"
"39.4000","13.1339","0.0053"
"39.6000","13.2007","0.0053"
"39.8000","13.2673","0.0052"
"40.0000","13.3340","0.0054"
"40.2000","13.4008","0.0057"
"40.4000","13.4673","0.0053"
"40.6000","13.5341","0.0051"
"40.8000","13.6007","0.0056"
"41.0000","13.6674","0.0050"
"41.2000","13.7340","0.0056"
"41.4000","13.8007","0.0053"
"41.6000","13.8675","0.0047"
"41.8000","13.9340","0.0050"
"42.0000","14.0008","0.0054"
"42.2000","14.0673","0.0051"
"42.4000","14.1341","0.0058"
"42.6000","14.2008","0.0054"
"42.8000","14.2673","0.0056"
"43.0000","14.3341","0.0054"
"43.2000","14.4007","0.0053"
"43.4000","14.4674","0.0052"
"43.6000","14.5340","0.0056"
"43.8000","14.6007","0.0050"
"44.0000","14.6674","0.0057"
"44.2000","14.7340","0.0051"
"44.4000","14.8008","0.0051"
"44.6000","14.8673","0.0049"
"44.8000","14.9341","0.0052"
"45.0000","15.0008","0.0053"
"45.2000","15.0674","0.0050"
"45.4000","15.1342","0.0057"
"45.6000","15.2007","0.0055"
"45.8000","15.2674","0.0053"
"46.0000","15.3340","0.0053"
"46.2000","15.4007","0.0062"
"46.4000","15.4674","0.0058"
"46.6000","15.5341","0.0055"
"46.8000","15.6007","0.0054"
"47.0000","15.6674","0.0054"
"47.2000","15.7341","0.0049"
"47.4000","15.8007","0.0057"
"47.6000","15.8674","0.0059"
"47.8000","15.9341","0.0056"
"48.0000","16.0006","0.0056"
"48.2000","16.0674","0.0059"
"48.4000","16.1340","0.0057"
"48.6000","16.2008","0.0055"
"48.8000","16.2674","0.0064"
"49.0000","16.3341","0.0050"
"49.2000","16.4007","0.0054"
"49.4000","16.4673","0.0056"
"49.6000","16.5341","0.0058"
"49.8000","16.6007","0.0062"
"50.0000","16.6674","0.0059"
"50.2000","16.7340","0.0064"
"50.4000","16.8007","0.0050"
"50.6000","16.8674","0.0060"
"50.8000","16.9340","0.0059"
"51.0000","17.0007","0.0058"
"51.2000","17.0673","0.0070"
"51.4000","17.1341","0.0053"
"51.6000","17.2007","0.0054"
"51.8000","17.2674","0.0064"
"52.0000","17.3340","0.0056"
"52.2000","17.4007","0.0057"
"52.4000","17.4674","0.0067"
"52.6000","17.5340","0.0066"
"52.8000","17.6008","0.0063"
"53.0000","17.6674","0.0068"
"53.2000","17.7340","0.0059"
"53.4000","17.8008","0.0060"
"53.6000","17.8673","0.0058"
"53.6720","17.8912","0.0061"