File: Tensile test/TENSILE TEST.is_qtest_Exports/TENSILE TEST_3.csv
Time,Displacement,Force
(s),(mm),(kN)
"0.0000","-0.0001","0.0009"
"0.8000","2.6725","0.0014"
"1.6000","5.3399","0.0031"
"2.4000","8.0066","0.0033"
"3.2000","10.6732","0.0055"
"4.0000","13.3401","0.0066"
"4.8000","16.0067","0.0080"
"5.6000","18.6732","0.0087"
"6.4000","21.3399","0.0090"
"7.2000","24.0066","0.0099"
"8.0000","26.6734","0.0105"
"8.8000","29.3403","0.0111"
"9.6000","32.0066","0.0118"
"10.4000","34.6734","0.0125"
"11.2000","37.3399","0.0121"
"12.0000","40.0066","0.0134"
"12.8000","42.6733","0.0136"
"13.6000","45.3400","0.0142"
"14.4000","48.0067","0.0149"
"15.2000","50.6732","0.0152"
"16.0000","53.3398","0.0155"
"16.8000","56.0067","0.0160"
"17.6000","58.6733","0.0161"
"18.4000","61.3400","0.0168"
"19.2000","64.0069","0.0166"
"20.0000","66.6733","0.0174"
"20.8000","69.3402","0.0180"
"21.6000","72.0065","0.0181"
"22.4000","74.6732","0.0188"
"23.2000","77.3400","0.0194"
"24.0000","80.0067","0.0192"
"24.8000","82.6733","0.0205"
"25.6000","85.3398","0.0203"
"26.4000","88.0065","0.0215"
"27.2000","90.6733","0.0206"
"28.0000","93.3398","0.0219"
"28.8000","96.0066","0.0230"
"29.6000","98.6735","0.0224"
"30.4000","101.3398","0.0235"
"31.2000","104.0068","0.0229"
"32.0000","106.6734","0.0237"
"32.8000","109.3400","0.0251"
"33.6000","112.0067","0.0252"
"34.4000","114.6733","0.0257"
"35.2000","117.3400","0.0264"
"36.0000","120.0065","0.0264"
"36.8000","122.6731","0.0277"
"37.6000","125.3401","0.0276"
"38.4000","128.0066","0.0281"
"39.2000","130.6733","0.0288"
"40.0000","133.3400","0.0299"
"40.8000","136.0064","0.0301"
"41.6000","138.6733","0.0300"
"42.4000","141.3400","0.0313"
"43.2000","144.0067","0.0316"
"44.0000","146.6734","0.0320"
"44.8000","149.3400","0.0332"
"45.6000","152.0068","0.0346"
"46.4000","154.6732","0.0342"
"47.2000","157.3399","0.0345"
"48.0000","160.0067","0.0357"
"48.8000","162.6733","0.0363"
"49.6000","165.3400","0.0368"
"50.4000","168.0065","0.0375"
"51.2000","170.6731","0.0384"
"52.0000","173.3400","0.0387"
"52.8000","176.0066","0.0392"
"53.6000","178.6734","0.0412"
"54.4000","181.3400","0.0415"
"55.2000","184.0067","0.0422"
"56.0000","186.6733","0.0433"
"56.8000","189.3400","0.0436"
"57.6000","192.0067","0.0447"
"58.4000","194.6732","0.0462"
"59.2000","197.3400","0.0468"
"60.0000","200.0067","0.0478"
"60.8000","202.6730","0.0483"
"61.6000","205.3399","0.0494"
"62.4000","208.0066","0.0509"
"63.2000","210.6732","0.0508"
"64.0000","213.3403","0.0532"
"64.8000","216.0066","0.0536"
"65.6000","218.6732","0.0557"
"66.4000","221.3400","0.0568"
"67.2000","224.0068","0.0578"
"68.0000","226.6735","0.0595"
"68.8000","229.3399","0.0601"
"69.6000","232.0067","0.0616"
"70.4000","234.6734","0.0634"
"71.2000","237.3396","0.0649"
"72.0000","240.0066","0.0663"
"72.8000","242.6732","0.0680"
"73.6000","245.3400","0.0701"
"74.4000","248.0067","0.0715"
"75.2000","250.6732","0.0736"
"76.0000","253.3398","0.0760"
"76.8000","256.0067","0.0777"
"77.6000","258.6734","0.0805"
"78.4000","261.3404","0.0824"
"79.2000","264.0065","0.0841"
"80.0000","266.6734","0.0876"
"80.8000","269.3398","0.0892"
"81.6000","272.0063","0.0924"
"82.4000","274.6732","0.0947"
"83.2000","277.3399","0.0967"
"84.0000","280.0066","0.1011"
"84.8000","282.6733","0.1037"
"85.6000","285.3398","0.1064"
"86.4000","288.0065","0.1088"
"87.2000","290.6732","0.1014"
"88.0000","293.3401","0.1106"
"88.8000","296.0071","0.1147"
"89.6000","298.6733","0.1178"
"90.4000","301.3399","0.1211"
"91.2000","304.0064","0.1241"
"92.0000","306.6733","0.1075"
"92.8000","309.3400","0.1218"
"93.6000","312.0066","0.1280"
"94.4000","314.6734","0.1325"
"95.2000","317.3401","0.1340"
"96.0000","320.0067","0.1387"
"96.8000","322.6731","0.1076"
"97.6000","325.3399","0.1215"
"98.4000","328.0067","0.1318"
"99.2000","330.6735","0.1383"
"100.0000","333.3399","0.1436"
"100.8000","336.0068","0.1482"
"101.6000","338.6732","0.1148"
"102.4000","341.3400","0.1297"
"103.2000","344.0066","0.1412"
"104.0000","346.6731","0.1486"
"104.8000","349.3400","0.1159"
"105.6000","352.0064","0.1378"
"106.4000","354.6732","0.1497"
"107.2000","357.3400","0.1562"
"108.0000","360.0066","0.1456"
"108.8000","362.6731","0.1576"
"109.6000","365.3402","0.1635"
"110.4000","368.0065","0.1696"
"111.2000","370.6734","0.1740"
"112.0000","373.3400","0.1791"
"112.8000","376.0066","0.1591"
"113.6000","378.6732","0.1705"
"114.4000","381.3399","0.1710"
"115.2000","384.0065","0.1834"
"116.0000","386.6730","0.1913"
"116.8000","389.3399","0.1968"
"117.6000","392.0067","0.2025"
"118.4000","394.6732","0.1709"
"119.2000","397.3398","0.1933"
"120.0000","400.0068","0.2039"
"120.8000","402.6732","0.1800"
"121.6000","405.3400","0.2028"
"122.4000","408.0066","0.2131"
"123.2000","410.6732","0.2025"
"124.0000","413.3402","0.2196"
"124.8000","416.0066","0.2283"
"125.6000","418.6734","0.2347"
"126.4000","421.3399","0.2411"
"127.2000","424.0066","0.2474"
"128.0000","426.6733","0.2524"
"128.8000","429.3400","0.2580"
"129.6000","432.0067","0.2551"
"130.4000","434.6733","0.2641"
"131.2000","437.3398","0.2730"
"132.0000","440.0066","0.2788"
"132.8000","442.6732","0.2854"
"133.6000","445.3399","0.2732"
"134.4000","448.0067","0.2863"
"135.2000","450.6732","0.2951"
"136.0000","453.3401","0.3032"
"136.8000","456.0065","0.3041"
"137.6000","458.6732","0.3128"
"138.4000","461.3400","0.3214"
"139.2000","464.0067","0.3278"
"140.0000","466.6733","0.3239"
"140.8000","469.3398","0.3345"
"141.6000","472.0065","0.3436"
"142.4000","474.6735","0.3514"
"143.2000","477.3398","0.3595"
"144.0000","480.0068","0.3675"
"144.8000","482.6733","0.3750"
"145.6000","485.3400","0.3836"
"146.4000","488.0066","0.3912"
"147.2000","490.6732","0.3993"
"148.0000","493.3401","0.4067"
"148.8000","496.0067","0.4135"
"149.6000","498.6732","0.4215"
"150.4000","501.3400","0.4288"
"151.2000","504.0064","0.4351"
"152.0000","506.6732","0.4434"
"152.8000","509.3399","0.4518"
"153.6000","512.0065","0.4606"
"154.4000","514.6735","0.4690"
"155.2000","517.3400","0.4789"
"156.0000","520.0066","0.4868"
"156.7840","522.6199","0.2292"
"157.5840","525.2866","0.1138"
"158.3840","527.9532","0.1247"
"159.1840","530.6198","0.1283"
"159.9840","533.2864","0.1384"
"160.7840","535.9532","0.1489"
"161.5840","538.6199","0.1497"
"162.3840","541.2866","0.1593"
"163.1840","543.9533","0.1663"
"163.9840","546.6198","0.1523"
"164.7840","549.2864","0.1403"
"165.5840","551.9532","0.1537"
"166.3840","554.6199","0.1240"
"167.1840","557.2866","0.1357"
"167.9840","559.9531","0.1046"
"168.7840","562.6198","0.1149"
"169.5840","565.2865","0.1249"
"170.3840","567.9533","0.1165"
"171.1840","570.6197","0.1272"
"171.9840","573.2867","0.1347"
"172.7840","575.9533","0.1260"
"173.5840","578.6199","0.1351"
"174.3840","581.2866","0.1449"
"175.1840","583.9531","0.1543"
"175.9840","586.6201","0.1570"
"176.7840","589.2865","0.1659"
"177.5840","591.9534","0.1754"
"178.3840","594.6199","0.1615"
"179.1840","597.2863","0.1742"
"179.9840","599.9533","0.1475"
"180.7840","602.6199","0.1611"
"181.5840","605.2864","0.1719"
"182.3840","607.9532","0.1258"
"183.1840","610.6198","0.1386"
"183.9840","613.2864","0.1524"
"184.7840","615.9532","0.1605"
"185.5840","618.6198","0.1592"
"186.3840","621.2867","0.1703"
"187.1840","623.9532","0.1796"
"187.9840","626.6200","0.1870"
"188.7840","629.2865","0.1952"
"189.5840","631.9529","0.0715"
"190.3840","634.6196","0.0770"
"191.1840","637.2864","0.0768"
"191.9840","639.9532","0.0578"
"192.7840","642.6198","0.0630"
"193.5840","645.2865","0.0675"
"194.3840","647.9532","0.0716"
"195.1840","650.6199","0.0769"
"195.9840","653.2867","0.0522"
"196.7840","655.9536","0.0568"
"197.5840","658.6198","0.0602"
"198.3840","661.2868","0.0646"
"199.1840","663.9529","0.0686"
"199.9840","666.6198","0.0726"
"200.7840","669.2864","0.0775"
"201.5840","671.9530","0.0756"
"202.3840","674.6201","0.0804"
"203.1840","677.2864","0.0865"
"203.9840","679.9532","0.0912"
"204.7840","682.6198","0.0969"
"205.5840","685.2864","0.1018"
"206.3840","687.9533","0.1083"
"207.1840","690.6202","0.1130"
"207.9840","693.2864","0.1191"
"208.7840","695.9534","0.1242"
"209.5840","698.6196","0.1161"
"210.3840","701.2864","0.1249"
"211.1840","703.9531","0.1321"
"211.9840","706.6198","0.1381"
"212.7840","709.2867","0.1347"
"213.5840","711.9532","0.1452"
"214.3840","714.6198","0.1526"
"215.1840","717.2864","0.1477"
"215.9840","719.9532","0.1565"
"216.7840","722.6201","0.1633"
"217.5840","725.2869","0.1696"
"218.3840","727.9531","0.1757"
"219.1840","730.6201","0.0461"
"219.9840","733.2865","0.0488"
"220.7840","735.9534","0.0514"
"221.5840","738.6197","0.0533"
"222.3840","741.2864","0.0553"
"223.1840","743.9534","0.0583"
"223.8540","746.1866","0.0608"